File: Experimental data processing Python/Raman fit and plot/thf with ceramic - 2 7 peaks/thf with ceramic - 2 peak 3.csv
Wavenumber (cm-1),Intensity (a.u.)
741.283,0.00613856
741.427,0.00685588
741.571,0.00787594
741.715,0.00930068
741.859,0.0112549
742.003,0.0138869
742.147,0.0173666
742.291,0.0218818
742.435,0.0276301
742.579,0.0348081
742.723,0.0435962
742.867,0.0541405
743.011,0.0665317
743.155,0.0807845
743.299,0.0968168
743.444,0.114434
743.588,0.133317
743.732,0.153027
743.876,0.173006
744.02,0.192605
744.164,0.211114
744.308,0.2278
744.452,0.241958
744.596,0.252958
744.74,0.260291
744.884,0.263611
745.028,0.262756
745.172,0.25777
745.316,0.248889
745.46,0.236532
745.604,0.221262
745.748,0.203745
745.892,0.184703
746.036,0.164866
746.18,0.144923
746.324,0.125489
746.468,0.107076
746.613,0.0900741
746.757,0.0747506
746.901,0.0612529
747.045,0.0496214
747.189,0.0398078
747.333,0.0316963
747.477,0.0251244
747.621,0.019903
747.765,0.0158336
747.909,0.0127214
748.053,0.0103851
748.197,0.00866336
748.341,0.00741739
748.485,0.00653185
748.629,0.00591364