File: Experimental data processing Python/Raman fit and plot/thf with ceramic - 2 7 peaks/thf with ceramic - 2 peak 1.csv
Wavenumber (cm-1),Intensity (a.u.)
749.061,0.00596417
749.205,0.00649277
749.349,0.00721205
749.493,0.00817887
749.637,0.0094625
749.782,0.0111457
749.926,0.0133254
750.07,0.0161127
750.214,0.0196318
750.358,0.024018
750.502,0.0294141
750.646,0.0359655
750.79,0.0438137
750.934,0.053088
751.078,0.0638962
751.222,0.0763142
751.366,0.0903751
751.51,0.106059
751.654,0.123282
751.798,0.141891
751.942,0.161659
752.086,0.182283
752.23,0.203385
752.374,0.224528
752.518,0.245222
752.662,0.264942
752.806,0.283154
752.951,0.299334
753.095,0.312994
753.239,0.323707
753.383,0.331128
753.527,0.335015
753.671,0.335239
753.815,0.331791
753.959,0.324788
754.103,0.314457
754.247,0.301133
754.391,0.285234
754.535,0.267241
754.679,0.247674
754.823,0.227071
754.967,0.205955
755.111,0.184823
755.255,0.16412
755.399,0.144231
755.543,0.125467
755.687,0.108066
755.831,0.0921906
755.975,0.0779308
756.12,0.0653145
756.264,0.0543144
756.408,0.0448594
756.552,0.0368449
756.696,0.0301437
756.84,0.0246153
756.984,0.0201145
757.128,0.0164977
757.272,0.0136286
757.416,0.0113814
757.56,0.00964344
757.704,0.00831606
757.848,0.00731479
757.992,0.00656877
758.136,0.00601971