File: Experimental data processing Python/Raman fit and plot/thf with ceramic - 2 7 peaks/thf with ceramic - 2 peak 7.csv
Wavenumber (cm-1),Intensity (a.u.)
726.302,0.00619999
726.446,0.00698832
726.59,0.00812562
726.734,0.00973405
726.878,0.0119636
727.022,0.014992
727.166,0.0190218
727.31,0.0242735
727.454,0.0309741
727.599,0.0393407
727.743,0.0495589
727.887,0.0617583
728.031,0.0759853
728.175,0.092177
728.319,0.110139
728.463,0.129531
728.607,0.149865
728.751,0.170512
728.895,0.190731
729.039,0.209709
729.183,0.226609
729.327,0.240637
729.471,0.251095
729.615,0.257447
729.759,0.259357
729.903,0.256725
730.047,0.249689
730.191,0.238621
730.335,0.224085
730.479,0.206797
730.623,0.187565
730.768,0.167225
730.912,0.14658
731.056,0.126358
731.2,0.107165
731.344,0.0894669
731.488,0.0735794
731.632,0.059675
731.776,0.0477974
731.92,0.0378852
732.064,0.0297982
732.208,0.0233438
732.352,0.0183024
732.496,0.0144469
732.64,0.011559
732.784,0.00943987
732.928,0.00791596
733.072,0.00684187
733.216,0.00609969