File: Experimental data processing Python/Raman fit and plot/thf with ceramic - 2 7 peaks/thf with ceramic - 2 peak 5.csv
Wavenumber (cm-1),Intensity (a.u.)
733.072,0.00615873
733.216,0.0068383
733.36,0.0077909
733.504,0.00910716
733.648,0.0108997
733.792,0.0133054
733.937,0.0164869
734.081,0.0206321
734.225,0.0259524
734.369,0.032678
734.513,0.0410499
734.657,0.0513094
734.801,0.0636835
734.945,0.0783674
735.089,0.0955051
735.233,0.115168
735.377,0.137334
735.521,0.161868
735.665,0.18851
735.809,0.216861
735.953,0.246389
736.097,0.276432
736.241,0.306221
736.385,0.334909
736.529,0.361607
736.673,0.385427
736.817,0.405537
736.961,0.4212
737.106,0.431826
737.25,0.437006
737.394,0.436538
737.538,0.43044
737.682,0.41895
737.826,0.402508
737.97,0.381733
738.114,0.357379
738.258,0.330291
738.402,0.301361
738.546,0.271473
738.69,0.241465
738.834,0.212089
738.978,0.183986
739.122,0.157669
739.266,0.13351
739.41,0.111751
739.554,0.0925059
739.698,0.07578
739.842,0.0614885
739.986,0.0494777
740.13,0.0395457
740.275,0.031462
740.419,0.0249846
740.563,0.0198735
740.707,0.0159012
740.851,0.0128599
740.995,0.0105658
741.139,0.0088606
741.283,0.00761145
741.427,0.00670956
741.571,0.00606769