File: Experimental data processing Python/Raman fit and plot/thf with ceramic - 2 7 peaks/thf with ceramic - 2 sliced_raw.csv
Wavenumbers (cm^-1),Intensity (a.u.) data,Intensity (a.u.) fit
727.0787,0.042274,0.0449306
727.2787,0.0455248,0.0516624
727.4787,0.053429,0.0611605
727.6787,0.0667671,0.0740249
727.8787,0.0860855,0.0907296
728.0787,0.110449,0.111492
728.2787,0.138346,0.13614
728.4787,0.168271,0.164005
728.6787,0.19871,0.193884
728.8787,0.228155,0.224083
729.0787,0.255096,0.252576
729.2787,0.278023,0.277246
729.4787,0.295426,0.296191
729.6787,0.305803,0.308028
729.8787,0.308541,0.31212
730.0787,0.304813,0.308703
730.2787,0.296,0.298849
730.4787,0.283487,0.284296
730.6787,0.268653,0.267173
730.8787,0.252883,0.249678
731.0787,0.237559,0.233781
731.2787,0.224062,0.220992
731.4787,0.213777,0.212244
731.6787,0.207992,0.207869
731.8787,0.206782,0.20767
732.0787,0.209354,0.211049
732.2787,0.214897,0.217159
732.4787,0.2226,0.225042
732.6787,0.231654,0.233757
732.8787,0.241246,0.242465
733.0787,0.250568,0.250493
733.2787,0.258808,0.257371
733.4787,0.265155,0.262855
733.6787,0.269108,0.266935
733.8787,0.271314,0.269842
734.0787,0.272691,0.272039
734.2787,0.274156,0.274201
734.4787,0.276623,0.277179
734.6787,0.28101,0.28194
734.8787,0.288234,0.28948
735.0787,0.29921,0.300719
735.2787,0.314855,0.316376
735.4787,0.336053,0.336843
735.6787,0.362632,0.362074
735.8787,0.393106,0.391511
736.0787,0.425906,0.424066
736.2787,0.459469,0.458172
736.4787,0.492225,0.491911
736.6787,0.522612,0.523202
736.8787,0.549061,0.550039
737.0787,0.570006,0.570737
737.2787,0.583881,0.584147
737.4787,0.589411,0.589815
737.6787,0.58737,0.588044
737.8787,0.5794,0.57986
738.0787,0.567144,0.56688
738.2787,0.552252,0.551108
738.4787,0.536368,0.534691
738.6787,0.521137,0.519669
738.8787,0.508208,0.507771
739.0787,0.499224,0.500254
739.2787,0.495827,0.497826
739.4787,0.498818,0.500639
739.6787,0.507216,0.508338
739.8787,0.519815,0.520163
740.0787,0.535408,0.535067
740.2787,0.552788,0.551842
740.4787,0.570747,0.569236
740.6787,0.588077,0.58605
740.8787,0.603573,0.601216
741.0787,0.616027,0.613854
741.2787,0.624308,0.623309
741.4787,0.628315,0.629178
741.6787,0.628702,0.631329
741.8787,0.626134,0.6299
742.0787,0.621281,0.625296
742.2787,0.614811,0.618167
742.4787,0.60739,0.609362
742.6787,0.599687,0.599859
742.8787,0.59237,0.590667
743.0787,0.586106,0.582708
743.2787,0.581383,0.576691
743.4787,0.578021,0.572995
743.6787,0.575689,0.571593
743.8787,0.574057,0.57203
744.0787,0.572793,0.573486
744.2787,0.571564,0.574911
744.4787,0.570041,0.575227
744.6787,0.567892,0.573561
744.8787,0.564785,0.569459
745.0787,0.560411,0.563046
745.2787,0.555105,0.555082
745.4787,0.549969,0.546915
745.6787,0.546145,0.540313
745.8787,0.544778,0.537227
746.0787,0.547011,0.539518
746.2787,0.55399,0.548695
746.4787,0.566856,0.56571
746.6787,0.586753,0.590841
746.8787,0.614827,0.62365
747.0787,0.651838,0.663043
747.2787,0.696129,0.707378
747.4787,0.745097,0.754616
747.6787,0.796139,0.802488
747.8787,0.846645,0.84866
748.0787,0.894012,0.890874
748.2787,0.935629,0.927074
748.4787,0.968902,0.955506
748.6787,0.99123,0.974797
748.8787,1.0,0.984003
749.0787,0.99418,0.982646
749.2787,0.975576,0.970728
749.4787,0.946336,0.948715
749.6787,0.908593,0.917514
749.8787,0.864473,0.878422
750.0787,0.816123,0.833059
750.2787,0.765684,0.78329
750.4787,0.715289,0.731124
750.6787,0.667074,0.678615
750.8787,0.623053,0.62775
751.0787,0.583845,0.58034
751.2787,0.549202,0.537914
751.4787,0.518864,0.501627
751.6787,0.492569,0.472183
751.8787,0.470057,0.44979
752.0787,0.451067,0.43414
752.2787,0.435337,0.424438
752.4787,0.422607,0.419464
752.6787,0.412616,0.417677
752.8787,0.404975,0.417353
753.0787,0.398916,0.416736
753.2787,0.3936,0.414201
753.4787,0.388188,0.4084
753.6787,0.381842,0.398374
753.8787,0.373721,0.383625
754.0787,0.362988,0.364138
754.2787,0.348803,0.340347
754.4787,0.330327,0.313057
754.6787,0.306772,0.283335
754.8787,0.278384,0.252383
755.0787,0.246395,0.221407
755.2787,0.212075,0.191513
755.4787,0.176691,0.163615
755.6787,0.141515,0.138388
755.8787,0.107812,0.116251
756.0787,0.0768564,0.0973752
756.2787,0.0499139,0.08172
756.4787,0.0282545,0.0690806
756.6787,0.0128942,0.0591403
756.8787,0.00365311,0.0515207
757.0787,0.0,0.0458254
757.2787,0.00140542,0.0416727
757.4787,0.00733602,0.038718
757.6787,0.0172614,0.0366658
757.8787,0.0306502,0.0352742
758.0787,0.046971,0.0343527
758.2787,0.0656924,0.0337566
758.4787,0.0862802,0.0333799
758.6787,0.108033,0.0331473
758.8787,0.130016,0.033007