File: Experimental data processing Python/Raman fit and plot/thf with ceramic - 2 7 peaks/thf with ceramic - 2 peak 6.csv
Wavenumber (cm-1),Intensity (a.u.)
727.743,0.00592311
727.887,0.00627201
728.031,0.00670718
728.175,0.0072463
728.319,0.00790971
728.463,0.00872056
728.607,0.00970487
728.751,0.0108916
728.895,0.0123124
729.039,0.0140018
729.183,0.0159966
729.327,0.0183352
729.471,0.0210574
729.615,0.0242035
729.759,0.027813
729.903,0.0319238
730.047,0.0365706
730.191,0.0417837
730.335,0.0475872
730.479,0.0539975
730.623,0.0610216
730.768,0.0686556
730.912,0.0768832
731.056,0.0856744
731.2,0.0949846
731.344,0.104754
731.488,0.114907
731.632,0.125353
731.776,0.135988
731.92,0.146693
732.064,0.157337
732.208,0.167784
732.352,0.177888
732.496,0.187501
732.64,0.196477
732.784,0.204672
732.928,0.211951
733.072,0.218191
733.216,0.223283
733.36,0.227139
733.504,0.229688
733.648,0.230886
733.792,0.230709
733.937,0.229161
734.081,0.22627
734.225,0.222089
734.369,0.216692
734.513,0.210174
734.657,0.202648
734.801,0.194239
734.945,0.185086
735.089,0.175332
735.233,0.165126
735.377,0.154615
735.521,0.143941
735.665,0.133243
735.809,0.122646
735.953,0.112266
736.097,0.102203
736.241,0.092545
736.385,0.0833631
736.529,0.0747131
736.673,0.0666358
736.817,0.0591576
736.961,0.0522913
737.106,0.0460381
737.25,0.0403883
737.394,0.0353233
737.538,0.0308173
737.682,0.0268388
737.826,0.0233521
737.97,0.0203188
738.114,0.017699
738.258,0.0154526
738.402,0.01354
738.546,0.011923
738.69,0.0105655
738.834,0.00943375
738.978,0.00849667
739.122,0.00772609
739.266,0.00709672
739.41,0.00658615
739.554,0.00617475
739.698,0.00584546