File: Experimental data processing Python/Raman fit and plot/thf with ceramic - 2 7 peaks/thf with ceramic - 2 peak 2.csv
Wavenumber (cm-1),Intensity (a.u.)
742.291,0.0059869
742.435,0.00640938
742.579,0.00695532
742.723,0.00765615
742.867,0.00854982
743.011,0.00968179
743.155,0.011106
743.299,0.0128859
743.444,0.0150952
743.588,0.017819
743.732,0.0211541
743.876,0.0252097
744.02,0.0301076
744.164,0.0359813
744.308,0.0429762
744.452,0.0512475
744.596,0.0609586
744.74,0.0722784
744.884,0.0853776
745.028,0.100425
745.172,0.117582
745.316,0.136998
745.46,0.158803
745.604,0.183101
745.748,0.209964
745.892,0.239423
746.036,0.271465
746.18,0.306023
746.324,0.34297
746.468,0.38212
746.613,0.423219
746.757,0.465948
746.901,0.509924
747.045,0.554701
747.189,0.599775
747.333,0.644596
747.477,0.688576
747.621,0.731098
747.765,0.771534
747.909,0.809259
748.053,0.843665
748.197,0.87418
748.341,0.900281
748.485,0.921511
748.629,0.937491
748.773,0.947932
748.917,0.952644
749.061,0.951539
749.205,0.944638
749.349,0.932067
749.493,0.914057
749.637,0.89093
749.782,0.863096
749.926,0.831041
750.07,0.795306
750.214,0.75648
750.358,0.715178
750.502,0.67203
750.646,0.627659
750.79,0.582674
750.934,0.537651
751.078,0.493122
751.222,0.449569
751.366,0.407417
751.51,0.367023
751.654,0.328683
751.798,0.292623
751.942,0.259009
752.086,0.227942
752.23,0.199468
752.374,0.173585
752.518,0.150243
752.662,0.129358
752.806,0.110815
752.951,0.0944767
753.095,0.0801879
753.239,0.0677838
753.383,0.0570944
753.527,0.0479492
753.671,0.040181
753.815,0.0336291
753.959,0.0281421
754.103,0.0235789
754.247,0.0198102
754.391,0.0167192
754.535,0.0142014
754.679,0.0121643
754.823,0.0105275
754.967,0.00922107
755.111,0.00818537
755.255,0.00736979
755.399,0.00673181
755.543,0.00623608
755.687,0.00585342