File: Experimental data processing Python/Raman fit and plot/thf with ceramic - 2 7 peaks/thf with ceramic - 2 sliced_fit.csv
Wavenumbers (cm^-1),Intensity (a.u.) fit
707.0,0.0328185
707.288,0.0328185
707.576,0.0328185
707.864,0.0328185
708.152,0.0328185
708.44,0.0328185
708.729,0.0328185
709.017,0.0328185
709.305,0.0328185
709.593,0.0328185
709.881,0.0328185
710.169,0.0328185
710.457,0.0328185
710.745,0.0328185
711.033,0.0328185
711.321,0.0328185
711.609,0.0328185
711.898,0.0328185
712.186,0.0328185
712.474,0.0328185
712.762,0.0328185
713.05,0.0328185
713.338,0.0328185
713.626,0.0328185
713.914,0.0328185
714.202,0.0328185
714.49,0.0328185
714.778,0.0328185
715.067,0.0328185
715.355,0.0328185
715.643,0.0328185
715.931,0.0328185
716.219,0.0328185
716.507,0.0328185
716.795,0.0328185
717.083,0.0328185
717.371,0.0328185
717.659,0.0328185
717.947,0.0328185
718.236,0.0328185
718.524,0.0328185
718.812,0.0328185
719.1,0.0328185
719.388,0.0328185
719.676,0.0328185
719.964,0.0328185
720.252,0.0328185
720.54,0.0328185
720.828,0.0328185
721.116,0.0328185
721.405,0.0328185
721.693,0.0328185
721.981,0.0328185
722.269,0.0328185
722.557,0.0328185
722.845,0.0328185
723.133,0.0328185
723.421,0.0328185
723.709,0.0328186
723.997,0.0328188
724.285,0.0328196
724.574,0.032822
724.862,0.0328293
725.15,0.032851
725.438,0.0329121
725.726,0.0330742
726.014,0.033476
726.302,0.0344034
726.59,0.0363912
726.878,0.0403378
727.166,0.0475812
727.454,0.0598413
727.743,0.0789238
728.031,0.106134
728.319,0.141491
728.607,0.183012
728.895,0.226486
729.183,0.266048
729.471,0.295594
729.759,0.310612
730.047,0.309702
730.335,0.295115
730.623,0.272031
730.912,0.24691
731.2,0.225602
731.488,0.211952
731.776,0.20728
732.064,0.210695
732.352,0.219894
732.64,0.232051
732.928,0.244536
733.216,0.255367
733.504,0.263455
733.792,0.268708
734.081,0.272058
734.369,0.275383
734.657,0.281299
734.945,0.292746
735.233,0.312375
735.521,0.341793
735.809,0.380846
736.097,0.427181
736.385,0.476329
736.673,0.522418
736.961,0.559429
737.25,0.582672
737.538,0.590033
737.826,0.582569
738.114,0.564252
738.402,0.540935
738.69,0.518899
738.978,0.50343
739.266,0.497824
739.554,0.503008
739.842,0.517753
740.13,0.53928
740.419,0.564013
740.707,0.58829
740.995,0.608904
741.283,0.623467
741.571,0.63063
741.859,0.63019
742.147,0.623103
742.435,0.611372
742.723,0.597748
743.011,0.5852
743.299,0.576196
743.588,0.571967
743.876,0.572013
744.164,0.57416
744.452,0.575284
744.74,0.572571
745.028,0.564859
745.316,0.553522
745.604,0.542467
745.892,0.537193
746.18,0.543248
746.468,0.564642
746.757,0.602746
747.045,0.655936
747.333,0.719947
747.621,0.788708
747.909,0.855346
748.197,0.913135
748.485,0.956272
748.773,0.980443
749.061,0.983188
749.349,0.964065
749.637,0.92464
749.926,0.868291
750.214,0.799841
750.502,0.725055
750.79,0.650028
751.078,0.580516
751.366,0.521265
751.654,0.475424
751.942,0.44412
752.23,0.4263
752.518,0.418909
752.806,0.417413
753.095,0.416624
753.383,0.411665
753.671,0.398862
753.959,0.376372
754.247,0.344385
754.535,0.304884
754.823,0.26104
755.111,0.21645
755.399,0.174404
755.687,0.137362
755.975,0.106709
756.264,0.0827963
756.552,0.0651613
756.84,0.0528417
757.128,0.0446763
757.416,0.0395354
757.704,0.0364576
757.992,0.0347042
758.28,0.0337531
758.568,0.0332615
758.856,0.0330193
759.144,0.0329055
759.433,0.0328546
759.721,0.0328328
760.009,0.0328239
760.297,0.0328204
760.585,0.0328191
760.873,0.0328187
761.161,0.0328185
761.449,0.0328185
761.737,0.0328185
762.025,0.0328185
762.313,0.0328185
762.602,0.0328185
762.89,0.0328185
763.178,0.0328185
763.466,0.0328185
763.754,0.0328185
764.042,0.0328185
764.33,0.0328185
764.618,0.0328185
764.906,0.0328185
765.194,0.0328185
765.482,0.0328185
765.771,0.0328185
766.059,0.0328185
766.347,0.0328185
766.635,0.0328185
766.923,0.0328185
767.211,0.0328185
767.499,0.0328185
767.787,0.0328185
768.075,0.0328185
768.363,0.0328185
768.651,0.0328185
768.94,0.0328185
769.228,0.0328185
769.516,0.0328185
769.804,0.0328185
770.092,0.0328185
770.38,0.0328185
770.668,0.0328185
770.956,0.0328185
771.244,0.0328185
771.532,0.0328185
771.82,0.0328185
772.109,0.0328185
772.397,0.0328185
772.685,0.0328185
772.973,0.0328185
773.261,0.0328185
773.549,0.0328185
773.837,0.0328185
774.125,0.0328185
774.413,0.0328185
774.701,0.0328185
774.989,0.0328185
775.278,0.0328185
775.566,0.0328185
775.854,0.0328185
776.142,0.0328185
776.43,0.0328185
776.718,0.0328185
777.006,0.0328185
777.294,0.0328185
777.582,0.0328185
777.87,0.0328185
778.158,0.0328185
778.447,0.0328185
778.735,0.0328185
778.8787,0.0328185