File: Experimental data processing Python/Raman fit and plot/thf with ceramic - 2 7 peaks/thf with ceramic - 2 peak 4.csv
Wavenumber (cm-1),Intensity (a.u.)
733.792,0.00572313
733.937,0.00599274
734.081,0.00632555
734.225,0.00673447
734.369,0.00723454
734.513,0.00784323
734.657,0.00858067
734.801,0.00946988
734.945,0.010537
735.089,0.0118116
735.233,0.0133268
735.377,0.0151193
735.521,0.0172298
735.665,0.0197025
735.809,0.0225856
735.953,0.0259308
736.097,0.0297932
736.241,0.0342305
736.385,0.0393029
736.529,0.0450722
736.673,0.0516011
736.817,0.0589515
736.961,0.0671844
737.106,0.0763576
737.25,0.0865246
737.394,0.097733
737.538,0.110023
737.682,0.123424
737.826,0.137956
737.97,0.153624
738.114,0.170421
738.258,0.188321
738.402,0.207281
738.546,0.227239
738.69,0.248115
738.834,0.269807
738.978,0.292193
739.122,0.315131
739.266,0.338461
739.41,0.362005
739.554,0.385568
739.698,0.408944
739.842,0.431913
739.986,0.454249
740.13,0.475724
740.275,0.496108
740.419,0.515173
740.563,0.532703
740.707,0.548492
740.851,0.56235
740.995,0.574107
741.139,0.583618
741.283,0.590762
741.427,0.595449
741.571,0.597618
741.715,0.597242
741.859,0.594325
742.003,0.588905
742.147,0.581052
742.291,0.570864
742.435,0.55847
742.579,0.544024
742.723,0.5277
742.867,0.509695
743.011,0.490217
743.155,0.469488
743.299,0.447735
743.444,0.425188
743.588,0.402075
743.732,0.378622
743.876,0.355044
744.02,0.331544
744.164,0.308311
744.308,0.28552
744.452,0.263325
744.596,0.241863
744.74,0.221248
744.884,0.201576
745.028,0.182924
745.172,0.165346
745.316,0.148881
745.46,0.133547
745.604,0.119351
745.748,0.10628
745.892,0.0943134
746.036,0.083417
746.18,0.0735486
746.324,0.0646588
746.468,0.0566925
746.613,0.049591
746.757,0.0432929
746.901,0.0377358
747.045,0.0328572
747.189,0.0285958
747.333,0.0248921
747.477,0.0216888
747.621,0.0189321
747.765,0.0165711
747.909,0.014559
748.053,0.0128524
748.197,0.0114119
748.341,0.0102018
748.485,0.00919011
748.629,0.00834828
748.773,0.00765111
748.917,0.00707645
749.061,0.00660499
749.205,0.00622001
749.349,0.0059071